"CHX_W.SPC"
WL/nm,Abs
1100.00,0.422
1099.00,0.423
1098.00,0.423
1097.00,0.423
1096.00,0.424
1095.00,0.424
1094.00,0.424
1093.00,0.424
1092.00,0.425
1091.00,0.425
1090.00,0.425
1089.00,0.426
1088.00,0.426
1087.00,0.426
1086.00,0.427
1085.00,0.427
1084.00,0.427
1083.00,0.428
1082.00,0.428
1081.00,0.428
1080.00,0.428
1079.00,0.429
1078.00,0.429
1077.00,0.429
1076.00,0.430
1075.00,0.430
1074.00,0.430
1073.00,0.431
1072.00,0.431
1071.00,0.431
1070.00,0.431
1069.00,0.432
1068.00,0.432
1067.00,0.433
1066.00,0.433
1065.00,0.433
1064.00,0.433
1063.00,0.434
1062.00,0.434
1061.00,0.435
1060.00,0.435
1059.00,0.435
1058.00,0.435
1057.00,0.435
1056.00,0.435
1055.00,0.436
1054.00,0.436
1053.00,0.436
1052.00,0.436
1051.00,0.437
1050.00,0.437
1049.00,0.437
1048.00,0.438
1047.00,0.438
1046.00,0.438
1045.00,0.438
1044.00,0.438
1043.00,0.439
1042.00,0.439
1041.00,0.439
1040.00,0.440
1039.00,0.440
1038.00,0.440
1037.00,0.440
1036.00,0.440
1035.00,0.441
1034.00,0.441
1033.00,0.441
1032.00,0.442
1031.00,0.442
1030.00,0.442
1029.00,0.442
1028.00,0.442
1027.00,0.443
1026.00,0.443
1025.00,0.443
1024.00,0.444
1023.00,0.444
1022.00,0.444
1021.00,0.445
1020.00,0.445
1019.00,0.445
1018.00,0.445
1017.00,0.446
1016.00,0.446
1015.00,0.446
1014.00,0.447
1013.00,0.447
1012.00,0.447
1011.00,0.447
1010.00,0.448
1009.00,0.448
1008.00,0.449
1007.00,0.449
1006.00,0.449
1005.00,0.450
1004.00,0.450
1003.00,0.450
1002.00,0.450
1001.00,0.451
1000.00,0.451
999.00,0.451
998.00,0.451
997.00,0.452
996.00,0.452
995.00,0.452
994.00,0.452
993.00,0.453
992.00,0.453
991.00,0.453
990.00,0.454
989.00,0.454
988.00,0.454
987.00,0.454
986.00,0.455
985.00,0.455
984.00,0.456
983.00,0.456
982.00,0.456
981.00,0.457
980.00,0.457
979.00,0.457
978.00,0.458
977.00,0.458
976.00,0.458
975.00,0.459
974.00,0.459
973.00,0.459
972.00,0.460
971.00,0.460
970.00,0.461
969.00,0.461
968.00,0.461
967.00,0.462
966.00,0.462
965.00,0.462
964.00,0.463
963.00,0.463
962.00,0.463
961.00,0.464
960.00,0.464
959.00,0.464
958.00,0.465
957.00,0.465
956.00,0.465
955.00,0.466
954.00,0.466
953.00,0.467
952.00,0.467
951.00,0.467
950.00,0.467
949.00,0.467
948.00,0.467
947.00,0.467
946.00,0.467
945.00,0.468
944.00,0.468
943.00,0.468
942.00,0.468
941.00,0.469
940.00,0.469
939.00,0.469
938.00,0.469
937.00,0.470
936.00,0.470
935.00,0.470
934.00,0.470
933.00,0.471
932.00,0.471
931.00,0.471
930.00,0.471
929.00,0.472
928.00,0.472
927.00,0.472
926.00,0.472
925.00,0.472
924.00,0.473
923.00,0.473
922.00,0.473
921.00,0.474
920.00,0.474
919.00,0.474
918.00,0.475
917.00,0.475
916.00,0.475
915.00,0.475
914.00,0.476
913.00,0.476
912.00,0.476
911.00,0.477
910.00,0.477
909.00,0.477
908.00,0.478
907.00,0.478
906.00,0.478
905.00,0.479
904.00,0.479
903.00,0.479
902.00,0.479
901.00,0.480
900.00,0.480
899.00,0.480
898.00,0.480
897.00,0.481
896.00,0.481
895.00,0.481
894.00,0.482
893.00,0.482
892.00,0.482
891.00,0.483
890.00,0.483
889.00,0.483
888.00,0.484
887.00,0.484
886.00,0.484
885.00,0.485
884.00,0.485
883.00,0.486
882.00,0.486
881.00,0.486
880.00,0.487
879.00,0.487
878.00,0.488
877.00,0.488
876.00,0.488
875.00,0.489
874.00,0.489
873.00,0.489
872.00,0.490
871.00,0.490
870.00,0.491
869.00,0.491
868.00,0.491
867.00,0.491
866.00,0.492
865.00,0.492
864.00,0.492
863.00,0.493
862.00,0.493
861.00,0.493
860.00,0.494
859.00,0.494
858.00,0.495
857.00,0.495
856.00,0.495
855.00,0.496
854.00,0.496
853.00,0.496
852.00,0.497
851.00,0.497
850.00,0.498
849.00,0.498
848.00,0.498
847.00,0.499
846.00,0.499
845.00,0.499
844.00,0.500
843.00,0.500
842.00,0.500
841.00,0.501
840.00,0.501
839.00,0.502
838.00,0.502
837.00,0.502
836.00,0.503
835.00,0.503
834.00,0.504
833.00,0.504
832.00,0.505
831.00,0.505
830.00,0.506
829.00,0.506
828.00,0.507
827.00,0.507
826.00,0.508
825.00,0.508
824.00,0.508
823.00,0.509
822.00,0.510
821.00,0.510
820.00,0.511
819.00,0.511
818.00,0.512
817.00,0.512
816.00,0.513
815.00,0.514
814.00,0.514
813.00,0.515
812.00,0.516
811.00,0.516
810.00,0.517
809.00,0.517
808.00,0.518
807.00,0.518
806.00,0.519
805.00,0.520
804.00,0.520
803.00,0.521
802.00,0.522
801.00,0.522
800.00,0.523
799.00,0.524
798.00,0.524
797.00,0.525
796.00,0.526
795.00,0.526
794.00,0.527
793.00,0.528
792.00,0.529
791.00,0.530
790.00,0.531
789.00,0.532
788.00,0.533
787.00,0.535
786.00,0.536
785.00,0.537
784.00,0.539
783.00,0.541
782.00,0.543
781.00,0.544
780.00,0.546
779.00,0.549
778.00,0.551
777.00,0.553
776.00,0.555
775.00,0.558
774.00,0.560
773.00,0.563
772.00,0.565
771.00,0.568
770.00,0.570
769.00,0.573
768.00,0.576
767.00,0.578
766.00,0.581
765.00,0.583
764.00,0.585
763.00,0.587
762.00,0.589
761.00,0.591
760.00,0.592
759.00,0.594
758.00,0.595
757.00,0.596
756.00,0.597
755.00,0.598
754.00,0.599
753.00,0.599
752.00,0.600
751.00,0.600
750.00,0.600
749.00,0.599
748.00,0.599
747.00,0.598
746.00,0.598
745.00,0.597
744.00,0.596
743.00,0.594
742.00,0.593
741.00,0.592
740.00,0.590
739.00,0.589
738.00,0.587
737.00,0.586
736.00,0.584
735.00,0.582
734.00,0.581
733.00,0.579
732.00,0.578
731.00,0.576
730.00,0.575
729.00,0.574
728.00,0.573
727.00,0.572
726.00,0.571
725.00,0.570
724.00,0.569
723.00,0.568
722.00,0.567
721.00,0.567
720.00,0.566
719.00,0.566
718.00,0.565
717.00,0.565
716.00,0.564
715.00,0.564
714.00,0.564
713.00,0.564
712.00,0.563
711.00,0.563
710.00,0.563
709.00,0.563
708.00,0.563
707.00,0.563
706.00,0.563
705.00,0.563
704.00,0.563
703.00,0.563
702.00,0.563
701.00,0.563
700.00,0.563
699.00,0.563
698.00,0.563
697.00,0.563
696.00,0.563
695.00,0.564
694.00,0.564
693.00,0.564
692.00,0.565
691.00,0.565
690.00,0.566
689.00,0.566
688.00,0.567
687.00,0.567
686.00,0.567
685.00,0.568
684.00,0.568
683.00,0.569
682.00,0.569
681.00,0.570
680.00,0.570
679.00,0.571
678.00,0.571
677.00,0.571
676.00,0.572
675.00,0.572
674.00,0.573
673.00,0.573
672.00,0.573
671.00,0.574
670.00,0.574
669.00,0.575
668.00,0.575
667.00,0.575
666.00,0.576
665.00,0.576
664.00,0.576
663.00,0.577
662.00,0.577
661.00,0.577
660.00,0.577
659.00,0.578
658.00,0.578
657.00,0.578
656.00,0.578
655.00,0.579
654.00,0.579
653.00,0.580
652.00,0.580
651.00,0.581
650.00,0.581
649.00,0.582
648.00,0.582
647.00,0.583
646.00,0.583
645.00,0.584
644.00,0.584
643.00,0.584
642.00,0.585
641.00,0.586
640.00,0.586
639.00,0.587
638.00,0.587
637.00,0.588
636.00,0.589
635.00,0.589
634.00,0.590
633.00,0.590
632.00,0.591
631.00,0.591
630.00,0.592
629.00,0.592
628.00,0.592
627.00,0.593
626.00,0.593
625.00,0.594
624.00,0.594
623.00,0.595
622.00,0.595
621.00,0.595
620.00,0.596
619.00,0.596
618.00,0.597
617.00,0.597
616.00,0.598
615.00,0.598
614.00,0.599
613.00,0.600
612.00,0.600
611.00,0.601
610.00,0.601
609.00,0.601
608.00,0.602
607.00,0.603
606.00,0.603
605.00,0.604
604.00,0.604
603.00,0.605
602.00,0.606
601.00,0.606
600.00,0.607
599.00,0.608
598.00,0.608
597.00,0.609
596.00,0.610
595.00,0.610
594.00,0.611
593.00,0.611
592.00,0.612
591.00,0.613
590.00,0.613
589.00,0.614
588.00,0.615
587.00,0.615
586.00,0.616
585.00,0.617
584.00,0.617
583.00,0.618
582.00,0.618
581.00,0.619
580.00,0.620
579.00,0.620
578.00,0.621
577.00,0.622
576.00,0.622
575.00,0.623
574.00,0.624
573.00,0.624
572.00,0.625
571.00,0.626
570.00,0.626
569.00,0.627
568.00,0.628
567.00,0.628
566.00,0.629
565.00,0.630
564.00,0.631
563.00,0.631
562.00,0.632
561.00,0.633
560.00,0.633
559.00,0.634
558.00,0.635
557.00,0.635
556.00,0.636
555.00,0.637
554.00,0.637
553.00,0.638
552.00,0.639
551.00,0.640
550.00,0.641
549.00,0.642
548.00,0.642
547.00,0.643
546.00,0.644
545.00,0.645
544.00,0.646
543.00,0.647
542.00,0.648
541.00,0.649
540.00,0.650
539.00,0.650
538.00,0.651
537.00,0.652
536.00,0.653
535.00,0.653
534.00,0.654
533.00,0.655
532.00,0.656
531.00,0.657
530.00,0.658
529.00,0.660
528.00,0.660
527.00,0.662
526.00,0.663
525.00,0.663
524.00,0.664
523.00,0.665
522.00,0.666
521.00,0.667
520.00,0.668
519.00,0.669
518.00,0.670
517.00,0.671
516.00,0.672
515.00,0.673
514.00,0.674
513.00,0.675
512.00,0.676
511.00,0.677
510.00,0.678
509.00,0.679
508.00,0.679
507.00,0.680
506.00,0.681
505.00,0.682
504.00,0.683
503.00,0.684
502.00,0.685
501.00,0.686
500.00,0.687
499.00,0.688
498.00,0.689
497.00,0.691
496.00,0.692
495.00,0.693
494.00,0.694
493.00,0.696
492.00,0.697
491.00,0.698
490.00,0.700
489.00,0.701
488.00,0.702
487.00,0.704
486.00,0.705
485.00,0.707
484.00,0.708
483.00,0.710
482.00,0.711
481.00,0.713
480.00,0.715
479.00,0.716
478.00,0.718
477.00,0.720
476.00,0.721
475.00,0.723
474.00,0.725
473.00,0.727
472.00,0.729
471.00,0.731
470.00,0.733
469.00,0.735
468.00,0.737
467.00,0.739
466.00,0.740
465.00,0.742
464.00,0.744
463.00,0.745
462.00,0.747
461.00,0.748
460.00,0.749
459.00,0.750
458.00,0.752
457.00,0.753
456.00,0.753
455.00,0.754
454.00,0.755
453.00,0.756
452.00,0.756
451.00,0.756
450.00,0.757
449.00,0.758
448.00,0.758
447.00,0.759
446.00,0.760
445.00,0.760
444.00,0.761
443.00,0.762
442.00,0.763
441.00,0.764
440.00,0.765
439.00,0.766
438.00,0.767
437.00,0.768
436.00,0.769
435.00,0.770
434.00,0.771
433.00,0.772
432.00,0.773
431.00,0.774
430.00,0.775
429.00,0.776
428.00,0.777
427.00,0.777
426.00,0.779
425.00,0.780
424.00,0.781
423.00,0.782
422.00,0.783
421.00,0.784
420.00,0.785
419.00,0.786
418.00,0.787
417.00,0.788
416.00,0.789
415.00,0.790
414.00,0.791
413.00,0.792
412.00,0.793
411.00,0.793
410.00,0.794
409.00,0.795
408.00,0.796
407.00,0.797
406.00,0.798
405.00,0.798
404.00,0.799
403.00,0.800
402.00,0.800
401.00,0.801
400.00,0.802
399.00,0.803
398.00,0.803
397.00,0.805
396.00,0.805
395.00,0.806
394.00,0.807
393.00,0.807
392.00,0.808
391.00,0.809
390.00,0.810
389.00,0.811
388.00,0.812
387.00,0.813
386.00,0.814
385.00,0.815
384.00,0.817
383.00,0.818
382.00,0.819
381.00,0.821
380.00,0.822
379.00,0.823
378.00,0.825
377.00,0.827
376.00,0.828
375.00,0.830
374.00,0.831
373.00,0.833
372.00,0.835
371.00,0.836
370.00,0.838
369.00,0.839
368.00,0.842
367.00,0.843
366.00,0.845
365.00,0.848
364.00,0.850
363.00,0.852
362.00,0.854
361.00,0.856
360.00,0.857
359.00,0.860
358.00,0.862
357.00,0.864
356.00,0.866
355.00,0.868
354.00,0.871
353.00,0.873
352.00,0.876
351.00,0.878
350.00,0.880
349.00,0.883
348.00,0.886
347.00,0.887
346.00,0.890
345.00,0.891
344.00,0.893
343.00,0.893
342.00,0.895
341.00,0.896
340.00,0.892
339.00,0.891
338.00,0.891
337.00,0.890
336.00,0.891
335.00,0.890
334.00,0.891
333.00,0.891
332.00,0.891
331.00,0.892
330.00,0.893
329.00,0.894
328.00,0.893
327.00,0.895
326.00,0.896
325.00,0.896
324.00,0.897
323.00,0.898
322.00,0.899
321.00,0.899
320.00,0.900
319.00,0.901
318.00,0.901
317.00,0.903
316.00,0.904
315.00,0.905
314.00,0.906
313.00,0.906
312.00,0.906
311.00,0.909
310.00,0.909
309.00,0.910
308.00,0.912
307.00,0.914
306.00,0.914
305.00,0.916
304.00,0.918
303.00,0.920
302.00,0.922
301.00,0.924
300.00,0.926
299.00,0.929
298.00,0.931
297.00,0.934
296.00,0.937
295.00,0.942
294.00,0.946
293.00,0.951
292.00,0.956
291.00,0.961
290.00,0.965
289.00,0.969
288.00,0.974
287.00,0.979
286.00,0.985
285.00,0.990
284.00,0.996
283.00,1.002
282.00,1.007
281.00,1.011
280.00,1.018
279.00,1.023
278.00,1.029
277.00,1.034
276.00,1.040
275.00,1.046
274.00,1.051
273.00,1.055
272.00,1.061
271.00,1.065
270.00,1.069
269.00,1.072
268.00,1.076
267.00,1.079
266.00,1.082
265.00,1.084
264.00,1.087
263.00,1.087
262.00,1.089
261.00,1.090
260.00,1.091
259.00,1.091
258.00,1.091
257.00,1.091
256.00,1.090
255.00,1.089
254.00,1.087
253.00,1.086
252.00,1.084
251.00,1.082
250.00,1.079
249.00,1.077
248.00,1.074
247.00,1.072
246.00,1.069
245.00,1.068
244.00,1.067
243.00,1.067
242.00,1.067
241.00,1.068
240.00,1.071
239.00,1.075
238.00,1.081
237.00,1.088
236.00,1.098
235.00,1.109
234.00,1.122
233.00,1.137
232.00,1.155
231.00,1.172
230.00,1.191
229.00,1.209
228.00,1.227
227.00,1.244
226.00,1.262
225.00,1.280
224.00,1.298
223.00,1.316
222.00,1.337
221.00,1.357
220.00,1.379
219.00,1.401
218.00,1.425
217.00,1.451
216.00,1.476
215.00,1.503
214.00,1.527
213.00,1.553
212.00,1.572
211.00,1.596
210.00,1.618
209.00,1.621
208.00,1.623
207.00,1.611
206.00,1.590
205.00,1.542
204.00,1.458
203.00,1.346
202.00,1.213
201.00,1.020
200.00,0.823
199.00,0.661
198.00,0.599
197.00,0.512
196.00,0.506
195.00,0.501
194.00,0.579
193.00,0.689
192.00,0.760
191.00,1.690
190.00,0.519
